!CSV A.01.01
!Agilent Technologies,E8361C,US49010233,A.09.22.11
!Agilent E8361C: A.09.22.11
!Date: Wednesday, September 28, 2022 12:22:09
!Source: Standard

BEGIN CH1_DATA
Freq(Hz),S12(DB),S12(DEG)
500000000,-73.563278,-75.730698
504500000,-73.864037,-99.259895
509000000,-66.279785,-95.124405
513500000,-71.165512,-53.271679
518000000,-71.875359,38.266888
522500000,-70.20932,120.68271
527000000,-78.714767,63.820442
531500000,-63.764095,-2.7056086
536000000,-80.212173,14.712254
540500000,-65.797226,-88.126534
545000000,-68.672081,29.599756
549500000,-73.899002,86.007172
554000000,-82.749107,-47.176693
558500000,-67.395279,-91.043167
563000000,-86.44178,6.2405443
567500000,-69.77475,154.58467
572000000,-68.588554,34.603966
576500000,-64.962944,109.72729
581000000,-74.056808,-79.274483
585500000,-77.921638,103.37057
590000000,-65.203796,-20.505888
594500000,-82.850845,-172.76453
599000000,-88.766777,40.301342
603500000,-77.628738,14.822739
608000000,-77.467926,-178.79427
612500000,-74.082359,13.199632
617000000,-70.039665,156.87686
621500000,-64.427635,40.046555
626000000,-66.078972,156.73627
630500000,-72.501732,1.33225
635000000,-64.198624,-36.953491
639500000,-77.799187,-111.90745
644000000,-75.132561,-73.930771
648500000,-77.219917,19.390015
653000000,-70.640999,1.628554
657500000,-73.171394,56.679188
662000000,-75.258286,-142.23846
666500000,-69.260193,-132.54379
671000000,-67.699547,-70.661743
675500000,-65.691078,150.8783
680000000,-68.236717,78.106743
684500000,-79.038406,65.116554
689000000,-74.865608,130.1983
693500000,-72.187691,63.662281
698000000,-72.773094,84.746613
702500000,-75.102356,-91.647591
707000000,-67.759483,-142.07495
711500000,-67.660416,165.79326
716000000,-75.439568,105.08186
720500000,-68.616829,66.400078
725000000,-69.208084,54.100449
729500000,-69.787598,81.789368
734000000,-72.918312,72.035789
738500000,-84.167961,91.328041
743000000,-62.041191,177.87228
747500000,-74.576164,20.062292
752000000,-67.493279,-148.31067
756500000,-72.379013,5.6954021
761000000,-83.876022,65.237381
765500000,-74.215454,168.95462
770000000,-83.499527,100.56418
774500000,-64.523407,136.6389
779000000,-67.180954,65.607002
783500000,-73.48468,-125.29377
788000000,-69.800941,92.98909
792500000,-71.237679,161.11703
797000000,-74.501236,31.928738
801500000,-62.080055,64.060738
806000000,-65.909203,42.966393
810500000,-70.909126,107.77146
815000000,-69.630348,46.217915
819500000,-67.923584,49.486786
824000000,-80.862335,-150.84476
828500000,-65.639496,-27.118195
833000000,-65.337639,20.688892
837500000,-64.133263,19.25042
842000000,-65.071693,-8.4858742
846500000,-72.683823,-16.115545
851000000,-72.872223,-73.223763
855500000,-73.765076,-8.9014626
860000000,-79.985298,-91.597542
864500000,-66.281944,-25.229324
869000000,-69.851494,-31.44614
873500000,-65.361618,-14.798215
878000000,-59.182228,-19.223768
882500000,-69.317261,17.899708
887000000,-71.078674,10.929166
891500000,-79.252945,-23.017439
896000000,-70.537491,144.68794
900500000,-69.739777,-61.239449
905000000,-66.191772,-62.274475
909500000,-61.497871,-41.063011
914000000,-61.0392,-33.508411
918500000,-60.198471,-56.345009
923000000,-58.033638,-77.465904
927500000,-58.420612,-73.584106
932000000,-59.110634,-85.56295
936500000,-62.42152,-92.693176
941000000,-67.238449,-109.39757
945500000,-62.030804,-116.1115
950000000,-59.337067,-90.403801
954500000,-59.566193,-105.57705
959000000,-57.457973,-100.00919
963500000,-60.227875,-96.117126
968000000,-57.618164,-102.36566
972500000,-61.132057,-107.22785
977000000,-57.769207,-113.11647
981500000,-54.939358,-125.4574
986000000,-54.403423,-136.49432
990500000,-57.920277,-123.68174
995000000,-54.431316,-116.74299
999500000,-55.144058,-108.58803
1004000000,-51.612629,-105.75207
1008500000,-49.150063,-111.57531
1013000000,-46.680218,-121.78181
1017500000,-46.062405,-138.73116
1022000000,-44.56147,-146.17068
1026500000,-43.158539,-158.24493
1031000000,-42.406448,-164.2888
1035500000,-41.657993,-170.2847
1040000000,-40.504955,-178.8784
1044500000,-38.746204,170.9711
1049000000,-37.598431,159.36447
1053500000,-36.49007,150.35132
1058000000,-35.477364,141.22588
1062500000,-34.62289,130.26526
1067000000,-33.438232,122.28984
1071500000,-32.216164,109.90429
1076000000,-31.257963,98.086998
1080500000,-30.214188,83.886383
1085000000,-29.11072,69.255661
1089500000,-28.52331,54.523277
1094000000,-28.087929,38.114029
1098500000,-27.965889,22.491035
1103000000,-27.997599,5.0163188
1107500000,-28.606478,-10.773549
1112000000,-29.400068,-24.019032
1116500000,-30.396118,-33.32444
1121000000,-31.173424,-39.486416
1125500000,-31.317926,-45.756603
1130000000,-31.279861,-51.966976
1134500000,-31.410648,-61.251846
1139000000,-31.438522,-65.103508
1143500000,-30.464012,-77.256706
1148000000,-30.832972,-91.401596
1152500000,-31.494066,-99.408951
1157000000,-32.217136,-108.97335
1161500000,-33.098976,-113.04587
1166000000,-33.293373,-114.07011
1170500000,-33.172493,-115.77882
1175000000,-32.464645,-120.29817
1179500000,-31.441555,-127.73064
1184000000,-31.047438,-138.45145
1188500000,-31.110987,-149.37466
1193000000,-31.542007,-159.74338
1197500000,-32.180424,-166.64595
1202000000,-33.014194,-171.65526
1206500000,-33.476982,-172.50549
1211000000,-33.102394,-171.39885
1215500000,-32.236149,-174.45105
1220000000,-31.287527,178.72549
1224500000,-30.507469,165.59447
1229000000,-30.607141,154.11143
1233500000,-31.351366,146.15292
1238000000,-31.771111,136.51869
1242500000,-32.739773,131.90924
1247000000,-33.278259,129.45425
1251500000,-33.541016,130.46773
1256000000,-33.098682,132.41609
1260500000,-31.746965,132.30347
1265000000,-29.856779,125.387
1269500000,-28.616207,112.55698
1274000000,-28.130808,98.477066
1278500000,-28.266249,85.09227
1283000000,-28.447899,72.939911
1287500000,-29.297432,64.08197
1292000000,-30.114586,59.131374
1296500000,-30.537004,57.504055
1301000000,-30.431211,57.210449
1305500000,-29.498844,55.46273
1310000000,-28.153561,48.45467
1314500000,-27.4594,36.202293
1319000000,-27.337292,23.569469
1323500000,-28.015812,12.700978
1328000000,-28.764992,6.0433974
1332500000,-29.320486,0.87374866
1337000000,-29.659981,-1.4146118
1341500000,-29.663834,-3.1683671
1346000000,-29.154285,-5.2181997
1350500000,-28.274572,-9.6845932
1355000000,-27.648647,-18.757351
1359500000,-27.363598,-29.480322
1364000000,-27.429613,-40.004345
1368500000,-27.967937,-49.800671
1373000000,-28.658592,-57.270596
1377500000,-29.261805,-60.074928
1382000000,-29.679045,-61.755066
1386500000,-29.587168,-61.616611
1391000000,-28.685167,-62.14537
1395500000,-27.593924,-67.821114
1400000000,-26.709448,-77.269516
1404500000,-26.334085,-88.619453
1409000000,-26.365532,-98.44931
1413500000,-26.617359,-107.07021
1418000000,-26.923014,-112.62896
1422500000,-27.025904,-115.81639
1427000000,-26.869558,-120.73788
1431500000,-26.687204,-124.82201
1436000000,-26.347408,-128.48967
1440500000,-25.461456,-131.53439
1445000000,-24.442476,-140.14273
1449500000,-23.914505,-151.70364
1454000000,-23.946573,-162.71011
1458500000,-24.26232,-171.27058
1463000000,-24.645105,-177.80945
1467500000,-24.790895,178.09283
1472000000,-24.60042,174.7921
1476500000,-23.867863,170.21176
1481000000,-23.138813,161.56705
1485500000,-22.581602,150.27553
1490000000,-22.579098,138.06703
1494500000,-22.939095,125.97944
1499000000,-23.572035,117.00507
1503500000,-24.33008,110.36205
1508000000,-24.879774,105.93771
1512500000,-25.185957,103.34405
1517000000,-25.025436,99.777641
1521500000,-24.671728,95.72245
1526000000,-24.00938,90.284355
1530500000,-23.391834,81.01133
1535000000,-23.267851,69.905624
1539500000,-23.595116,60.431179
1544000000,-23.907806,51.888309
1548500000,-24.403141,45.617081
1553000000,-24.835993,41.383778
1557500000,-24.815554,38.260017
1562000000,-24.501034,34.40126
1566500000,-24.006752,29.132133
1571000000,-23.636221,21.161894
1575500000,-23.410727,12.298358
1580000000,-23.402197,3.0731449
1584500000,-23.649158,-5.6934867
1589000000,-24.127815,-12.335256
1593500000,-24.342928,-17.672831
1598000000,-24.412138,-22.810116
1602500000,-24.469351,-29.2505
1607000000,-24.365595,-35.535305
1611500000,-24.217842,-42.268597
1616000000,-24.371038,-50.353504
1620500000,-24.525253,-56.301041
1625000000,-24.581127,-63.964844
1629500000,-24.712839,-71.256432
1634000000,-25.07663,-78.336365
1638500000,-25.274643,-84.638573
1643000000,-25.517673,-90.970139
1647500000,-25.84926,-97.628036
1652000000,-26.162226,-101.66624
1656500000,-26.102837,-106.028
1661000000,-26.133921,-111.08305
1665500000,-25.990957,-117.38689
1670000000,-25.966658,-124.36375
1674500000,-26.065325,-131.51218
1679000000,-26.522747,-138.21988
1683500000,-26.841009,-144.33644
1688000000,-27.354975,-148.94406
1692500000,-27.655586,-151.29063
1697000000,-27.74745,-154.03233
1701500000,-27.495028,-156.17097
1706000000,-27.167625,-160.86815
1710500000,-26.850241,-167.03096
1715000000,-26.629398,-173.47009
1719500000,-26.428135,179.96657
1724000000,-26.609674,171.69746
1728500000,-26.839334,165.83411
1733000000,-27.112309,160.14418
1737500000,-27.081923,156.12949
1742000000,-27.102209,150.11693
1746500000,-26.955091,145.57584
1751000000,-26.683701,138.87407
1755500000,-26.559206,128.94159
1760000000,-26.836655,120.52692
1764500000,-27.347183,112.97892
1769000000,-27.919853,106.32519
1773500000,-28.509827,102.69007
1778000000,-28.999176,101.25693
1782500000,-28.829802,100.43217
1787000000,-28.472332,96.903915
1791500000,-27.92532,91.8899
1796000000,-27.380499,84.877792
1800500000,-27.407948,74.876152
1805000000,-27.971901,66.277687
1809500000,-28.51297,61.13369
1814000000,-28.94758,57.189812
1818500000,-29.477715,54.921104
1823000000,-29.621466,55.243362
1827500000,-29.182241,52.990379
1832000000,-28.399353,48.975822
1836500000,-28.12125,43.401669
1841000000,-27.783453,35.030304
1845500000,-27.780964,26.173117
1850000000,-28.248539,19.471212
1854500000,-28.728199,14.088025
1859000000,-29.161495,11.419768
1863500000,-29.370773,8.3290558
1868000000,-29.225988,6.7792277
1872500000,-28.876102,4.8151345
1877000000,-28.344734,-1.4248906
1881500000,-28.179829,-8.7788773
1886000000,-28.257593,-15.221423
1890500000,-28.380079,-19.734997
1895000000,-28.624563,-24.79616
1899500000,-28.777185,-27.92767
1904000000,-28.465334,-30.095644
1908500000,-28.024776,-32.816349
1913000000,-27.473236,-37.867363
1917500000,-26.873589,-43.923836
1922000000,-26.206354,-53.118153
1926500000,-26.25629,-62.16011
1931000000,-26.483326,-69.448563
1935500000,-26.694412,-74.796051
1940000000,-26.676092,-78.931465
1944500000,-26.806786,-83.502937
1949000000,-26.371035,-86.370506
1953500000,-25.552107,-93.422562
1958000000,-25.397703,-101.73151
1962500000,-25.250925,-109.63078
1967000000,-25.375444,-118.14394
1971500000,-25.500278,-125.58044
1976000000,-25.874235,-129.60777
1980500000,-25.869902,-133.85252
1985000000,-25.598288,-138.39195
1989500000,-25.126469,-144.97279
1994000000,-24.78392,-153.09665
1998500000,-24.870821,-163.11934
2003000000,-25.226736,-170.8839
2007500000,-25.82938,-177.73721
2012000000,-26.255856,178.67079
2016500000,-26.4508,176.55717
2021000000,-26.444798,174.57355
2025500000,-26.065348,171.50046
2030000000,-25.315775,166.50412
2034500000,-24.681543,159.01762
2039000000,-24.535122,148.09396
2043500000,-24.714121,140.73193
2048000000,-25.067415,132.72374
2052500000,-25.538464,126.17492
2057000000,-25.917625,123.30508
2061500000,-25.867908,119.83213
2066000000,-25.520977,115.67396
2070500000,-25.104065,110.53782
2075000000,-24.627357,103.20801
2079500000,-24.158381,92.297234
2084000000,-24.259718,82.085503
2088500000,-24.859789,73.072052
2093000000,-25.417475,66.488174
2097500000,-26.002111,60.55492
2102000000,-26.59379,58.238071
2106500000,-26.508427,55.543766
2111000000,-26.134489,51.608929
2115500000,-25.597479,46.274448
2120000000,-25.263027,37.504311
2124500000,-25.159008,27.937754
2129000000,-25.428001,18.770975
2133500000,-25.998608,11.588693
2138000000,-26.686411,6.4068642
2142500000,-27.121859,3.9168706
2147000000,-27.048532,1.7992224
2151500000,-26.823145,-1.3868788
2156000000,-26.178675,-6.0814667
2160500000,-25.792944,-15.049788
2165000000,-25.883659,-23.721848
2169500000,-26.20295,-32.459312
2174000000,-26.902071,-38.991802
2178500000,-27.400465,-43.338318
2183000000,-27.728636,-45.132999
2187500000,-27.510736,-47.003765
2192000000,-27.078159,-50.610516
2196500000,-26.734734,-57.412823
2201000000,-26.419647,-64.908539
2205500000,-26.220556,-75.673309
2210000000,-26.848459,-84.697258
2214500000,-27.450008,-91.141808
2219000000,-28.062878,-96.337746
2223500000,-28.453705,-99.792648
2228000000,-28.635519,-101.79351
2232500000,-28.25654,-105.4155
2237000000,-27.820423,-112.88407
2241500000,-27.648998,-120.66155
2246000000,-27.69322,-130.56752
2250500000,-28.177351,-138.88222
2255000000,-29.032227,-146.4585
2259500000,-29.699965,-151.12497
2264000000,-30.144312,-154.11678
2268500000,-30.32163,-156.1405
2273000000,-30.017374,-160.13579
2277500000,-29.774357,-165.21982
2282000000,-29.793671,-171.49638
2286500000,-29.8531,-179.51729
2291000000,-30.324564,173.25081
2295500000,-31.133774,168.05797
2300000000,-31.51882,165.26518
2304500000,-31.897236,162.42712
2309000000,-31.955788,161.63403
2313500000,-31.635366,158.02388
2318000000,-31.618219,152.56999
2322500000,-31.56292,146.87683
2327000000,-31.651844,140.10617
2331500000,-32.122585,138.08047
2336000000,-32.551636,136.93233
2340500000,-32.550243,135.51282
2345000000,-31.96278,133.28708
2349500000,-31.612928,128.29138
2354000000,-31.028986,123.0159
2358500000,-30.846348,115.70277
2363000000,-30.993464,110.08801
2367500000,-31.098135,102.52187
2372000000,-31.150236,97.974251
2376500000,-31.079847,92.479347
2381000000,-31.152998,89.503258
2385500000,-30.973219,85.255569
2390000000,-30.672857,77.297523
2394500000,-30.645424,71.814926
2399000000,-30.66082,64.598251
2403500000,-30.708673,61.410858
2408000000,-31.070654,52.201328
2412500000,-31.233925,47.031097
2417000000,-31.380337,43.369091
2421500000,-31.264433,38.559631
2426000000,-31.141987,33.351994
2430500000,-31.119316,26.840992
2435000000,-31.066017,20.009853
2439500000,-31.494961,11.990078
2444000000,-32.022945,7.282567
2448500000,-32.47327,2.9160135
2453000000,-32.986725,-0.60914749
2457500000,-32.972973,-3.5546529
2462000000,-33.175213,-5.5235243
2466500000,-32.967258,-9.0034246
2471000000,-33.008282,-13.647608
2475500000,-32.940075,-18.832306
2480000000,-32.729092,-23.225513
2484500000,-32.972076,-28.515442
2489000000,-32.90406,-32.845375
2493500000,-33.114113,-35.581257
2498000000,-32.658955,-37.498436
2502500000,-32.225315,-41.138783
2507000000,-31.808374,-46.851891
2511500000,-31.325729,-54.517483
2516000000,-31.256077,-65.225075
2520500000,-31.899918,-69.777664
2525000000,-31.995218,-76.026985
2529500000,-32.213337,-77.18177
2534000000,-32.538898,-80.560722
2538500000,-32.105034,-82.593208
2543000000,-31.801697,-88.445244
2547500000,-31.490433,-93.62117
2552000000,-31.444529,-99.437897
2556500000,-31.263067,-105.10223
2561000000,-31.288656,-109.8325
2565500000,-31.308056,-113.58741
2570000000,-31.072903,-117.18247
2574500000,-30.721016,-123.07992
2579000000,-30.516317,-128.01147
2583500000,-29.869307,-134.29932
2588000000,-29.763391,-142.02693
2592500000,-29.418139,-148.75488
2597000000,-29.630672,-155.78731
2601500000,-29.750952,-161.864
2606000000,-29.684734,-167.01401
2610500000,-29.518814,-172.54327
2615000000,-29.376469,-179.67503
2619500000,-28.945568,174.11292
2624000000,-28.980328,166.73712
2628500000,-29.027817,159.86031
2633000000,-29.109528,152.79776
2637500000,-29.185371,145.6371
2642000000,-29.300241,138.89156
2646500000,-29.828777,133.61064
2651000000,-29.531353,128.75105
2655500000,-29.556187,122.38688
2660000000,-29.394239,117.99086
2664500000,-29.350544,111.334
2669000000,-29.160238,102.24388
2673500000,-29.395285,93.995773
2678000000,-29.645878,87.363785
2682500000,-29.876017,80.519859
2687000000,-30.290937,75.856537
2691500000,-30.357777,69.655785
2696000000,-30.33153,63.661667
2700500000,-30.277687,57.771088
2705000000,-30.299049,50.76511
2709500000,-30.567163,43.958965
2714000000,-31.020117,37.555225
2718500000,-31.248486,33.544231
2723000000,-31.258949,27.089643
2727500000,-31.686438,24.917433
2732000000,-31.163113,19.005308
2736500000,-30.987206,11.015336
2741000000,-31.084522,3.6547577
2745500000,-30.953493,-3.7618732
2750000000,-31.284414,-11.494223
2754500000,-32.099136,-18.601274
2759000000,-32.365479,-24.56011
2763500000,-32.892937,-27.698637
2768000000,-33.169682,-31.807224
2772500000,-33.342377,-35.076839
2777000000,-33.399799,-39.119545
2781500000,-33.400951,-47.488125
2786000000,-33.713291,-51.166084
2790500000,-33.928581,-58.728905
2795000000,-34.208462,-63.693325
2799500000,-34.496487,-69.315331
2804000000,-35.328201,-72.233772
2808500000,-35.29784,-74.592705
2813000000,-35.410805,-79.784142
2817500000,-35.47208,-81.428802
2822000000,-35.318718,-89.68866
2826500000,-35.665047,-94.454765
2831000000,-35.957413,-101.15823
2835500000,-36.087872,-105.80235
2840000000,-36.297977,-110.781
2844500000,-36.669498,-114.28111
2849000000,-36.59586,-119.15636
2853500000,-36.736122,-121.84446
2858000000,-36.832306,-125.12782
2862500000,-36.516624,-130.50229
2867000000,-36.697075,-140.54141
2871500000,-37.011364,-144.91074
2876000000,-37.525612,-150.52736
2880500000,-38.379002,-156.32751
2885000000,-38.824368,-156.42509
2889500000,-40.019344,-156.84698
2894000000,-39.637005,-159.52904
2898500000,-39.636547,-160.39452
2903000000,-39.589897,-161.12891
2907500000,-39.401432,-161.64197
2912000000,-39.520649,-164.20808
2916500000,-38.794033,-166.03143
2921000000,-38.827988,-167.79738
2925500000,-38.122349,-172.13309
2930000000,-37.623505,-172.92657
2934500000,-37.332569,-177.20233
2939000000,-36.529205,179.16594
2943500000,-35.85146,172.13837
2948000000,-35.439083,163.98209
2952500000,-34.928429,157.87947
2957000000,-35.285637,151.53241
2961500000,-35.200211,144.30338
2966000000,-35.425827,139.09088
2970500000,-35.479744,134.60387
2975000000,-35.009296,130.1172
2979500000,-35.273132,122.36314
2984000000,-34.688248,117.98708
2988500000,-34.303165,113.97159
2993000000,-34.464359,105.68885
2997500000,-34.27375,100.7278
3002000000,-33.831562,95.032829
3006500000,-34.440823,88.26416
3011000000,-34.466618,83.30896
3015500000,-33.987522,77.11805
3020000000,-34.071461,72.648293
3024500000,-33.758369,68.712082
3029000000,-33.89402,62.243267
3033500000,-33.399544,56.352337
3038000000,-33.499641,49.881485
3042500000,-33.780388,42.770302
3047000000,-33.885159,37.072952
3051500000,-33.894539,33.42477
3056000000,-33.424629,29.016874
3060500000,-32.945721,23.290709
3065000000,-32.846237,16.254921
3069500000,-32.511192,10.301789
3074000000,-32.338173,2.5985413
3078500000,-32.477154,-4.6492124
3083000000,-32.544018,-13.00761
3087500000,-32.489494,-18.734777
3092000000,-32.647121,-22.811558
3096500000,-32.493946,-27.358143
3101000000,-32.143539,-36.084393
3105500000,-31.975567,-40.471638
3110000000,-31.621038,-48.075703
3114500000,-31.928478,-57.949516
3119000000,-32.147003,-65.263359
3123500000,-32.535091,-70.685066
3128000000,-32.598801,-77.652496
3132500000,-32.977005,-83.747353
3137000000,-33.03751,-89.064583
3141500000,-33.305435,-94.691391
3146000000,-33.729549,-100.5872
3150500000,-33.714424,-105.46554
3155000000,-33.762661,-111.46422
3159500000,-33.675259,-114.71223
3164000000,-34.044373,-124.7539
3168500000,-34.105911,-130.00839
3173000000,-34.466858,-137.34724
3177500000,-34.59037,-140.88708
3182000000,-35.016048,-144.41193
3186500000,-35.108639,-147.35966
3191000000,-35.331482,-154.18214
3195500000,-35.139206,-157.01567
3200000000,-35.5797,-160.09042
3204500000,-35.217216,-165.85101
3209000000,-35.306389,-173.6552
3213500000,-35.48159,-172.52374
3218000000,-35.214848,-178.6618
3222500000,-35.044189,173.48218
3227000000,-34.977718,171.03
3231500000,-34.831509,166.76755
3236000000,-34.490612,160.50313
3240500000,-34.709927,154.26613
3245000000,-34.505989,148.5737
3249500000,-34.652809,144.01624
3254000000,-34.861843,136.96027
3258500000,-34.727917,129.75743
3263000000,-34.919353,124.83076
3267500000,-34.738369,121.46994
3272000000,-34.774734,115.77228
3276500000,-34.775051,112.17052
3281000000,-34.547482,105.70358
3285500000,-34.639603,100.53013
3290000000,-34.693336,94.96167
3294500000,-34.635647,91.405899
3299000000,-34.189014,83.790344
3303500000,-34.512436,78.725945
3308000000,-34.032669,74.026062
3312500000,-33.920319,67.201874
3317000000,-33.516113,62.671745
3321500000,-33.562946,54.12051
3326000000,-33.485058,47.929901
3330500000,-33.559589,40.824299
3335000000,-33.791626,34.470222
3339500000,-33.964287,28.575956
3344000000,-34.075176,24.203104
3348500000,-33.904034,18.380039
3353000000,-33.670708,12.192908
3357500000,-33.565853,6.9164557
3362000000,-33.422222,0.28205687
3366500000,-33.777725,-8.7034817
3371000000,-33.91288,-14.46737
3375500000,-34.276665,-18.737717
3380000000,-34.064255,-24.632332
3384500000,-34.071712,-28.423122
3389000000,-34.007481,-31.344603
3393500000,-33.874092,-39.538692
3398000000,-33.862091,-44.063114
3402500000,-33.618481,-47.494545
3407000000,-33.774216,-55.7458
3411500000,-33.566502,-64.148178
3416000000,-33.640026,-69.420708
3420500000,-33.81102,-74.15477
3425000000,-33.323544,-81.448563
3429500000,-33.744255,-88.535736
3434000000,-33.543591,-92.725761
3438500000,-33.492867,-99.707405
3443000000,-33.784981,-106.04175
3447500000,-33.68536,-112.68572
3452000000,-33.885971,-118.26757
3456500000,-33.821358,-123.58369
3461000000,-34.119339,-131.59775
3465500000,-34.106625,-136.76256
3470000000,-34.390175,-142.37067
3474500000,-34.770889,-148.48355
3479000000,-34.577984,-153.49063
3483500000,-34.64333,-160.30327
3488000000,-34.571671,-164.5887
3492500000,-34.918983,-170.1356
3497000000,-34.711937,-173.13846
3501500000,-35.067623,-179.15886
3506000000,-35.097065,176.65495
3510500000,-34.982635,170.96237
3515000000,-35.013298,166.06712
3519500000,-34.751507,160.63002
3524000000,-34.567856,153.95949
3528500000,-34.647236,147.88037
3533000000,-34.275372,141.54355
3537500000,-34.474976,135.18149
3542000000,-34.591064,130.24231
3546500000,-34.601055,123.7832
3551000000,-34.151917,117.08432
3555500000,-34.326344,110.53476
3560000000,-34.624969,105.49598
3564500000,-34.782997,97.630852
3569000000,-34.988743,93.156067
3573500000,-34.520576,88.681976
3578000000,-34.308537,81.922798
3582500000,-35.00391,73.430405
3587000000,-34.922672,68.602234
3591500000,-35.310791,62.223618
3596000000,-35.184025,55.553394
3600500000,-35.462818,51.470413
3605000000,-35.473473,45.64645
3609500000,-35.461941,42.12822
3614000000,-35.481838,37.716454
3618500000,-35.469482,33.785999
3623000000,-35.764824,26.870724
3627500000,-34.972004,19.892851
3632000000,-35.593704,13.885832
3636500000,-35.550167,8.3635607
3641000000,-35.422684,3.5500808
3645500000,-35.455307,-2.3058782
3650000000,-35.086849,-7.9484878
3654500000,-34.907536,-14.407963
3659000000,-34.879425,-20.846514
3663500000,-34.803421,-28.510351
3668000000,-35.013901,-34.904213
3672500000,-35.133045,-41.862034
3677000000,-35.083096,-47.544498
3681500000,-35.901199,-54.576591
3686000000,-35.583019,-60.787571
3690500000,-35.967564,-64.780769
3695000000,-35.828728,-70.945343
3699500000,-35.967033,-75.069168
3704000000,-35.894524,-79.864059
3708500000,-35.909481,-87.799774
3713000000,-36.102474,-92.310829
3717500000,-36.031723,-100.17175
3722000000,-36.079693,-105.65886
3726500000,-36.551544,-112.63873
3731000000,-36.713104,-116.9802
3735500000,-36.870621,-121.81457
3740000000,-36.483032,-127.36993
3744500000,-36.586384,-132.86771
3749000000,-36.547054,-142.71317
3753500000,-36.730183,-145.84166
3758000000,-36.609974,-152.84479
3762500000,-36.845928,-159.52058
3767000000,-36.995323,-167.43884
3771500000,-37.247887,-170.67479
3776000000,-37.139404,179.90279
3780500000,-37.297546,172.99794
3785000000,-37.155659,167.0076
3789500000,-37.446678,161.51274
3794000000,-38.463692,153.63977
3798500000,-38.456673,147.51721
3803000000,-38.55125,143.06837
3807500000,-39.468143,138.50496
3812000000,-39.480362,133.88136
3816500000,-39.123623,130.4437
3821000000,-39.709999,124.58031
3825500000,-39.918316,118.5388
3830000000,-39.58556,117.50677
3834500000,-39.728813,107.25222
3839000000,-39.905739,100.76749
3843500000,-40.112579,98.764709
3848000000,-40.582924,94.806786
3852500000,-41.050167,90.300461
3857000000,-41.586227,84.732666
3861500000,-41.282936,78.26712
3866000000,-41.243595,71.685654
3870500000,-42.054794,69.148834
3875000000,-42.78109,59.398193
3879500000,-43.496372,59.017391
3884000000,-43.594067,56.017113
3888500000,-43.729626,52.495914
3893000000,-45.718128,42.706448
3897500000,-44.60183,45.719566
3902000000,-44.694439,37.42569
3906500000,-44.549263,34.57658
3911000000,-45.367249,37.206329
3915500000,-46.214016,31.526838
3920000000,-45.562103,25.123039
3924500000,-45.48885,33.052032
3929000000,-45.712997,18.865616
3933500000,-45.014435,25.399448
3938000000,-44.270554,19.276348
3942500000,-45.222843,12.262959
3947000000,-43.91095,6.4544811
3951500000,-44.146843,0.39144436
3956000000,-44.483784,-3.07727
3960500000,-44.592999,-2.7141645
3965000000,-44.475296,-10.741332
3969500000,-43.324551,-11.642696
3974000000,-42.901348,-19.441269
3978500000,-43.588093,-22.34737
3983000000,-44.821632,-27.976978
3987500000,-43.767033,-34.46912
3992000000,-44.351177,-37.88744
3996500000,-43.610085,-42.023426
4001000000,-43.934448,-44.304775
4005500000,-44.791737,-43.233868
4010000000,-43.622318,-52.969921
4014500000,-44.325897,-55.884354
4019000000,-44.391354,-60.979656
4023500000,-44.352325,-51.905415
4028000000,-43.640312,-62.025406
4032500000,-43.776627,-64.39299
4037000000,-43.298222,-66.68058
4041500000,-42.545483,-74.03112
4046000000,-42.290012,-76.781464
4050500000,-42.324177,-82.333054
4055000000,-41.405643,-87.331802
4059500000,-41.627899,-91.78334
4064000000,-40.54493,-97.467056
4068500000,-40.575886,-101.95219
4073000000,-39.615192,-109.15582
4077500000,-40.061771,-116.27057
4082000000,-39.786896,-123.18737
4086500000,-39.749569,-130.42461
4091000000,-40.373497,-135.06915
4095500000,-40.024822,-141.55794
4100000000,-39.947464,-147.74506
4104500000,-39.399025,-152.91901
4109000000,-39.093292,-162.11191
4113500000,-39.219864,-168.34943
4118000000,-39.114578,-175.93478
4122500000,-39.263439,178.80725
4127000000,-39.228649,171.51442
4131500000,-39.395782,165.10919
4136000000,-39.85881,158.59283
4140500000,-39.751862,154.0966
4145000000,-39.928917,149.09268
4149500000,-39.823715,143.5945
4154000000,-40.065613,135.45695
4158500000,-39.823483,130.45132
4163000000,-39.629723,124.39824
4167500000,-40.022652,115.18068
4172000000,-40.161533,109.11269
4176500000,-41.187992,109.81824
4181000000,-41.193844,105.21475
4185500000,-41.076561,99.598305
4190000000,-41.237652,92.285995
4194500000,-41.165237,86.86264
4199000000,-41.366035,80.042038
4203500000,-41.482635,79.413368
4208000000,-41.474197,78.34613
4212500000,-41.007576,69.386902
4217000000,-41.586853,66.243332
4221500000,-41.729107,58.340179
4226000000,-41.38364,55.592907
4230500000,-40.905807,51.137917
4235000000,-41.379005,42.254147
4239500000,-41.374069,39.015316
4244000000,-41.509335,31.64609
4248500000,-42.136341,26.069361
4253000000,-42.205898,22.087675
4257500000,-42.366093,13.601522
4262000000,-42.727398,9.0432673
4266500000,-42.905792,8.9165239
4271000000,-42.761879,4.723341
4275500000,-41.917095,4.2153125
4280000000,-42.462868,-4.5093875
4284500000,-42.024082,-10.072785
4289000000,-41.927444,-13.968572
4293500000,-42.015339,-17.342031
4298000000,-41.792404,-22.53336
4302500000,-42.524399,-31.198744
4307000000,-42.047688,-31.288626
4311500000,-42.273232,-37.674179
4316000000,-41.736439,-38.656326
4320500000,-41.732304,-46.364342
4325000000,-41.718666,-49.735531
4329500000,-41.524616,-57.259018
4334000000,-41.797729,-63.173664
4338500000,-42.35783,-71.016861
4343000000,-42.603523,-79.567268
4347500000,-42.572071,-80.012222
4352000000,-43.450035,-88.541031
4356500000,-43.188927,-87.982857
4361000000,-42.907707,-87.561539
4365500000,-42.342651,-100.42699
4370000000,-42.883865,-103.82555
4374500000,-43.012966,-101.68223
4379000000,-43.824459,-105.45273
4383500000,-43.582176,-116.72455
4388000000,-43.64109,-121.28893
4392500000,-44.809807,-120.45808
4397000000,-43.460953,-125.88316
4401500000,-44.246212,-131.5226
4406000000,-43.920422,-128.29112
4410500000,-44.9454,-143.37427
4415000000,-43.285957,-140.41628
4419500000,-44.197868,-140.28618
4424000000,-43.842052,-144.43668
4428500000,-42.997471,-146.14348
4433000000,-43.616673,-150.28577
4437500000,-42.260136,-155.2336
4442000000,-42.665741,-159.05873
4446500000,-43.626217,-162.11287
4451000000,-41.96632,-166.53111
4455500000,-42.171238,-171.37346
4460000000,-41.518192,-175.39536
4464500000,-41.512547,-177.09273
4469000000,-40.69265,171.65027
4473500000,-40.745396,171.48703
4478000000,-40.717644,164.51938
4482500000,-40.353947,159.45442
4487000000,-40.042664,154.34727
4491500000,-39.469501,146.85863
4496000000,-39.395729,139.38687
4500500000,-39.486324,139.06485
4505000000,-39.481888,130.28928
4509500000,-39.142742,125.41339
4514000000,-38.812298,114.85784
4518500000,-39.361183,113.49215
4523000000,-38.522671,106.93398
4527500000,-38.633507,96.580513
4532000000,-38.745392,89.416306
4536500000,-38.217159,80.957191
4541000000,-38.282433,74.912994
4545500000,-38.583225,68.243477
4550000000,-38.91534,65.354889
4554500000,-38.884651,60.010563
4559000000,-38.920849,51.140957
4563500000,-38.656948,45.982391
4568000000,-38.581055,40.898224
4572500000,-38.954109,28.615911
4577000000,-38.88316,23.666964
4581500000,-38.934078,21.208181
4586000000,-39.310612,16.228243
4590500000,-39.373966,9.8272543
4595000000,-39.500145,6.8563943
4599500000,-39.253681,-1.1970233
4604000000,-39.032032,-3.6463115
4608500000,-39.375599,-9.4129095
4613000000,-39.419178,-17.179255
4617500000,-39.584705,-21.226336
4622000000,-39.479107,-26.858652
4626500000,-39.884022,-32.223286
4631000000,-39.701103,-35.305931
4635500000,-40.231731,-43.48167
4640000000,-40.542839,-46.506081
4644500000,-39.782448,-52.163139
4649000000,-39.983597,-59.269371
4653500000,-40.116455,-66.196579
4658000000,-40.381001,-75.351013
4662500000,-39.964329,-74.478775
4667000000,-40.955948,-81.540077
4671500000,-40.669445,-86.662766
4676000000,-40.747536,-94.323685
4680500000,-41.011158,-98.364319
4685000000,-41.25272,-100.01675
4689500000,-41.054981,-104.66276
4694000000,-41.156101,-104.95982
4698500000,-41.628582,-113.12431
4703000000,-41.321918,-118.01987
4707500000,-41.22797,-124.87907
4712000000,-40.99231,-133.21133
4716500000,-41.425423,-135.98886
4721000000,-41.361938,-143.13326
4725500000,-41.02813,-146.39957
4730000000,-41.26149,-152.20581
4734500000,-40.657753,-156.47963
4739000000,-41.238705,-165.62914
4743500000,-41.046188,-168.45074
4748000000,-41.702534,-174.47639
4752500000,-41.480938,174.90259
4757000000,-41.68158,171.87529
4761500000,-42.184013,168.39281
4766000000,-42.294815,166.94373
4770500000,-42.048817,162.73529
4775000000,-42.408741,161.83774
4779500000,-42.755901,149.5338
4784000000,-42.836658,149.64163
4788500000,-42.756554,141.84961
4793000000,-43.132694,134.2975
4797500000,-44.113922,133.29074
4802000000,-43.58007,130.90842
4806500000,-43.733536,128.17979
4811000000,-44.200157,121.82996
4815500000,-43.562557,116.74416
4820000000,-44.675838,112.1844
4824500000,-43.926224,108.99871
4829000000,-44.005672,108.58913
4833500000,-44.583736,103.03444
4838000000,-44.322575,103.63913
4842500000,-44.055843,94.639473
4847000000,-43.723671,91.248703
4851500000,-43.556225,86.672539
4856000000,-42.895008,88.324951
4860500000,-43.641315,80.110245
4865000000,-43.541176,78.355301
4869500000,-43.036171,79.348572
4874000000,-43.60778,64.740265
4878500000,-43.751854,63.429127
4883000000,-42.668163,55.231415
4887500000,-43.125427,46.463799
4892000000,-42.250057,42.391891
4896500000,-42.733776,40.462078
4901000000,-42.327538,35.94199
4905500000,-42.964817,33.16235
4910000000,-42.764305,24.479923
4914500000,-42.983902,17.070894
4919000000,-43.042198,8.4348097
4923500000,-43.318966,8.7107515
4928000000,-42.924957,-2.5215018
4932500000,-43.680843,2.3892765
4937000000,-43.695232,3.8386171
4941500000,-43.029179,-11.753181
4946000000,-43.150692,-13.255249
4950500000,-42.414036,-20.728121
4955000000,-43.632286,-22.44845
4959500000,-43.654652,-26.741856
4964000000,-43.910477,-32.327629
4968500000,-43.75621,-38.564663
4973000000,-42.852245,-38.241993
4977500000,-42.966553,-46.115154
4982000000,-42.949696,-53.990292
4986500000,-43.118317,-64.294449
4991000000,-42.910656,-67.626427
4995500000,-42.575066,-73.023109
5000000000,-42.882847,-72.25985
END

