Coaxial Probe Method 18.0.19012401
Agilent Technologies,E8361C,US49010233,A.09.22.11

Ch 1
Port:, 2
Probe:, High temperature
Std1:, Air
Std2:, Short
Std3:, 25.0C water
IFBW:, 300.000000 Hz
Power:, -17.000000 dBm
Date:,"Wednesday, September 14, 2022 13:00:51"
frequency(Hz),Tr 1  Data(e'),(e'')
1000000000.0000,3.351416e+001,3.565187e+000
1045000000.0000,3.351351e+001,3.755188e+000
1090000000.0000,3.340683e+001,3.609666e+000
1135000000.0000,3.360279e+001,3.699849e+000
1180000000.0000,3.346931e+001,3.727541e+000
1225000000.0000,3.346406e+001,3.710184e+000
1270000000.0000,3.361843e+001,3.830763e+000
1315000000.0000,3.348459e+001,3.821916e+000
1360000000.0000,3.349760e+001,3.856662e+000
1405000000.0000,3.355558e+001,3.936356e+000
1450000000.0000,3.345227e+001,3.926733e+000
1495000000.0000,3.350984e+001,4.017959e+000
1540000000.0000,3.346578e+001,4.048391e+000
1585000000.0000,3.339763e+001,4.109114e+000
1630000000.0000,3.345508e+001,4.160280e+000
1675000000.0000,3.341879e+001,4.151976e+000
1720000000.0000,3.341377e+001,4.261781e+000
1765000000.0000,3.341192e+001,4.300770e+000
1810000000.0000,3.340223e+001,4.335347e+000
1855000000.0000,3.337957e+001,4.435548e+000
1900000000.0000,3.336658e+001,4.483308e+000
1945000000.0000,3.340059e+001,4.536634e+000
1990000000.0000,3.337545e+001,4.631950e+000
2035000000.0000,3.337844e+001,4.655433e+000
2080000000.0000,3.337557e+001,4.741763e+000
2125000000.0000,3.336680e+001,4.866601e+000
2170000000.0000,3.338675e+001,4.859349e+000
2215000000.0000,3.336669e+001,4.957669e+000
2260000000.0000,3.331868e+001,5.022984e+000
2305000000.0000,3.331071e+001,5.058267e+000
2350000000.0000,3.331595e+001,5.185620e+000
2395000000.0000,3.324168e+001,5.239831e+000
2440000000.0000,3.329775e+001,5.313453e+000
2485000000.0000,3.326228e+001,5.386696e+000
2530000000.0000,3.319821e+001,5.496816e+000
2575000000.0000,3.326106e+001,5.532981e+000
2620000000.0000,3.319765e+001,5.640564e+000
2665000000.0000,3.317785e+001,5.726976e+000
2710000000.0000,3.323512e+001,5.765480e+000
2755000000.0000,3.318421e+001,5.895709e+000
2800000000.0000,3.316513e+001,5.936357e+000
2845000000.0000,3.323378e+001,6.001754e+000
2890000000.0000,3.314531e+001,6.128657e+000
2935000000.0000,3.314974e+001,6.139751e+000
2980000000.0000,3.318190e+001,6.220550e+000
3025000000.0000,3.307437e+001,6.322893e+000
3070000000.0000,3.310004e+001,6.357250e+000
3115000000.0000,3.311291e+001,6.495543e+000
3160000000.0000,3.304981e+001,6.570504e+000
3205000000.0000,3.306618e+001,6.592786e+000
3250000000.0000,3.304173e+001,6.753908e+000
3295000000.0000,3.295423e+001,6.817983e+000
3340000000.0000,3.299579e+001,6.876606e+000
3385000000.0000,3.296383e+001,7.066251e+000
3430000000.0000,3.290863e+001,7.075295e+000
3475000000.0000,3.298889e+001,7.152444e+000
3520000000.0000,3.289754e+001,7.317289e+000
3565000000.0000,3.289296e+001,7.314499e+000
3610000000.0000,3.297521e+001,7.429552e+000
3655000000.0000,3.284037e+001,7.535370e+000
3700000000.0000,3.287062e+001,7.552540e+000
3745000000.0000,3.287998e+001,7.710637e+000
3790000000.0000,3.276872e+001,7.765855e+000
3835000000.0000,3.281366e+001,7.805633e+000
3880000000.0000,3.277843e+001,7.976947e+000
3925000000.0000,3.268528e+001,8.009983e+000
3970000000.0000,3.273305e+001,8.112466e+000
4015000000.0000,3.268113e+001,8.248065e+000
4060000000.0000,3.258603e+001,8.295184e+000
4105000000.0000,3.268346e+001,8.439615e+000
4150000000.0000,3.258987e+001,8.533404e+000
4195000000.0000,3.258869e+001,8.585415e+000
4240000000.0000,3.260984e+001,8.721723e+000
4285000000.0000,3.250909e+001,8.809981e+000
4330000000.0000,3.252963e+001,8.896345e+000
4375000000.0000,3.250506e+001,9.019420e+000
4420000000.0000,3.245258e+001,9.087824e+000
4465000000.0000,3.245854e+001,9.160599e+000
4510000000.0000,3.240646e+001,9.281944e+000
4555000000.0000,3.235506e+001,9.367617e+000
4600000000.0000,3.233444e+001,9.495716e+000
4645000000.0000,3.229808e+001,9.594741e+000
4690000000.0000,3.223154e+001,9.672448e+000
4735000000.0000,3.217166e+001,9.782455e+000
4780000000.0000,3.212649e+001,9.872059e+000
4825000000.0000,3.207382e+001,1.000257e+001
4870000000.0000,3.204311e+001,1.009678e+001
4915000000.0000,3.202546e+001,1.022718e+001
4960000000.0000,3.196489e+001,1.035777e+001
5005000000.0000,3.189416e+001,1.046035e+001
5050000000.0000,3.185522e+001,1.060646e+001
5095000000.0000,3.173671e+001,1.068992e+001
5140000000.0000,3.168225e+001,1.073468e+001
5185000000.0000,3.159400e+001,1.086328e+001
5230000000.0000,3.148993e+001,1.089422e+001
5275000000.0000,3.145777e+001,1.095568e+001
5320000000.0000,3.134869e+001,1.105171e+001
5365000000.0000,3.125242e+001,1.109137e+001
5410000000.0000,3.121914e+001,1.117585e+001
5455000000.0000,3.109002e+001,1.125159e+001
5500000000.0000,3.102871e+001,1.127729e+001
5545000000.0000,3.101396e+001,1.135994e+001
5590000000.0000,3.090439e+001,1.142681e+001
5635000000.0000,3.091354e+001,1.145930e+001
5680000000.0000,3.090101e+001,1.157772e+001
5725000000.0000,3.083384e+001,1.163234e+001
5770000000.0000,3.084344e+001,1.170065e+001
5815000000.0000,3.081066e+001,1.182750e+001
5860000000.0000,3.073175e+001,1.189701e+001
5905000000.0000,3.074143e+001,1.200177e+001
5950000000.0000,3.064869e+001,1.212791e+001
5995000000.0000,3.055039e+001,1.217387e+001
6040000000.0000,3.049592e+001,1.229088e+001
6085000000.0000,3.034732e+001,1.238245e+001
6130000000.0000,3.024915e+001,1.241813e+001
6175000000.0000,3.015486e+001,1.249321e+001
6220000000.0000,3.004465e+001,1.254768e+001
6265000000.0000,2.996127e+001,1.255995e+001
6310000000.0000,2.991052e+001,1.263562e+001
6355000000.0000,2.981897e+001,1.266258e+001
6400000000.0000,2.978226e+001,1.269792e+001
6445000000.0000,2.975741e+001,1.277639e+001
6490000000.0000,2.968397e+001,1.281897e+001
6535000000.0000,2.969134e+001,1.285312e+001
6580000000.0000,2.962373e+001,1.293138e+001
6625000000.0000,2.956804e+001,1.296481e+001
6670000000.0000,2.955017e+001,1.301367e+001
6715000000.0000,2.948749e+001,1.307561e+001
6760000000.0000,2.942414e+001,1.310876e+001
6805000000.0000,2.940069e+001,1.317131e+001
6850000000.0000,2.932657e+001,1.322284e+001
6895000000.0000,2.926199e+001,1.326263e+001
6940000000.0000,2.922403e+001,1.335077e+001
6985000000.0000,2.914928e+001,1.341520e+001
7030000000.0000,2.910146e+001,1.348387e+001
7075000000.0000,2.906379e+001,1.357349e+001
7120000000.0000,2.899262e+001,1.364689e+001
7165000000.0000,2.896995e+001,1.371519e+001
7210000000.0000,2.892695e+001,1.380349e+001
7255000000.0000,2.887431e+001,1.387892e+001
7300000000.0000,2.885987e+001,1.393244e+001
7345000000.0000,2.879570e+001,1.402154e+001
7390000000.0000,2.875996e+001,1.407856e+001
7435000000.0000,2.869221e+001,1.414084e+001
7480000000.0000,2.865064e+001,1.421512e+001
7525000000.0000,2.857276e+001,1.424592e+001
7570000000.0000,2.849455e+001,1.432644e+001
7615000000.0000,2.843403e+001,1.437892e+001
7660000000.0000,2.833894e+001,1.445416e+001
7705000000.0000,2.828485e+001,1.451740e+001
7750000000.0000,2.819788e+001,1.458874e+001
7795000000.0000,2.812411e+001,1.467934e+001
7840000000.0000,2.806449e+001,1.472084e+001
7885000000.0000,2.800360e+001,1.481808e+001
7930000000.0000,2.793158e+001,1.487545e+001
7975000000.0000,2.788571e+001,1.494322e+001
8020000000.0000,2.784010e+001,1.503733e+001
8065000000.0000,2.776483e+001,1.507227e+001
8110000000.0000,2.774005e+001,1.515308e+001
8155000000.0000,2.767104e+001,1.522474e+001
8200000000.0000,2.759389e+001,1.524196e+001
8245000000.0000,2.754944e+001,1.532271e+001
8290000000.0000,2.742053e+001,1.536980e+001
8335000000.0000,2.737210e+001,1.540875e+001
8380000000.0000,2.729013e+001,1.548726e+001
8425000000.0000,2.716918e+001,1.554435e+001
8470000000.0000,2.712295e+001,1.558809e+001
8515000000.0000,2.702458e+001,1.568965e+001
8560000000.0000,2.693898e+001,1.572090e+001
8605000000.0000,2.687526e+001,1.578719e+001
8650000000.0000,2.679455e+001,1.588558e+001
8695000000.0000,2.671638e+001,1.589764e+001
8740000000.0000,2.667562e+001,1.599187e+001
8785000000.0000,2.658172e+001,1.604986e+001
8830000000.0000,2.653739e+001,1.607532e+001
8875000000.0000,2.650814e+001,1.615838e+001
8920000000.0000,2.639743e+001,1.616999e+001
8965000000.0000,2.637067e+001,1.622088e+001
9010000000.0000,2.628203e+001,1.627614e+001
9055000000.0000,2.619236e+001,1.630185e+001
9100000000.0000,2.610862e+001,1.634402e+001
9145000000.0000,2.599944e+001,1.641483e+001
9190000000.0000,2.590907e+001,1.644224e+001
9235000000.0000,2.582250e+001,1.650357e+001
9280000000.0000,2.571885e+001,1.656206e+001
9325000000.0000,2.564834e+001,1.660054e+001
9370000000.0000,2.556434e+001,1.667006e+001
9415000000.0000,2.547845e+001,1.671781e+001
9460000000.0000,2.540874e+001,1.675616e+001
9505000000.0000,2.534852e+001,1.682478e+001
9550000000.0000,2.527565e+001,1.685613e+001
9595000000.0000,2.523635e+001,1.689107e+001
9640000000.0000,2.516434e+001,1.695032e+001
9685000000.0000,2.510264e+001,1.694408e+001
9730000000.0000,2.504372e+001,1.700681e+001
9775000000.0000,2.494058e+001,1.700530e+001
9820000000.0000,2.487334e+001,1.703638e+001
9865000000.0000,2.477609e+001,1.707332e+001
9910000000.0000,2.468690e+001,1.707845e+001
9955000000.0000,2.459500e+001,1.713043e+001
10000000000.0000,2.449286e+001,1.716392e+001

