!CSV A.01.01
!Agilent Technologies,E8361C,US49010233,A.09.22.11
!Agilent E8361C: A.09.22.11
!Date: Wednesday, September 28, 2022 13:31:53
!Source: Standard

BEGIN CH1_DATA
Freq(Hz),S22(DB),S22(DEG)
500000000,-5.1982999,146.69037
504500000,-5.2430687,145.7536
509000000,-5.3118858,144.6465
513500000,-5.3860011,143.51569
518000000,-5.4782386,142.39658
522500000,-5.6270771,141.39743
527000000,-5.7835345,140.49846
531500000,-5.9107585,139.38466
536000000,-6.0213776,138.44485
540500000,-6.1611814,137.41127
545000000,-6.3201127,136.41879
549500000,-6.4920702,135.47234
554000000,-6.7002211,134.89319
558500000,-6.8840723,134.30698
563000000,-7.0953274,133.40237
567500000,-7.4161448,131.96605
572000000,-7.8012071,131.15582
576500000,-8.2066603,130.52132
581000000,-8.5954657,130.02184
585500000,-8.9926643,129.66374
590000000,-9.4061432,129.30667
594500000,-9.8107958,129.81093
599000000,-10.195879,130.89845
603500000,-10.537219,132.37595
608000000,-10.799664,133.84938
612500000,-11.024404,135.83818
617000000,-11.22048,137.88228
621500000,-11.410935,139.80341
626000000,-11.55675,142.01532
630500000,-11.601253,144.3195
635000000,-11.590467,146.28299
639500000,-11.575911,147.70921
644000000,-11.539939,149.24467
648500000,-11.498511,150.45509
653000000,-11.476395,152.09816
657500000,-11.374337,153.77434
662000000,-11.340542,155.4137
666500000,-11.285012,156.95618
671000000,-11.259811,158.42119
675500000,-11.254926,160.24049
680000000,-11.226862,162.63362
684500000,-11.160915,164.60062
689000000,-10.9748,166.85229
693500000,-10.739583,168.03021
698000000,-10.421471,168.85506
702500000,-10.11479,168.88191
707000000,-9.8083897,168.68071
711500000,-9.5164137,168.05647
716000000,-9.2720022,167.51317
720500000,-9.0011806,167.23813
725000000,-8.8137217,166.47107
729500000,-8.6288118,165.91869
734000000,-8.4656048,165.05066
738500000,-8.3343248,164.32239
743000000,-8.2198105,163.73688
747500000,-8.113719,163.08682
752000000,-7.9822941,162.39037
756500000,-7.8200407,161.61319
761000000,-7.6563549,160.8997
765500000,-7.4897614,160.15993
770000000,-7.3358192,159.55949
774500000,-7.1103683,159.00169
779000000,-7.0450783,157.96715
783500000,-7.0313144,157.67105
788000000,-6.9032674,156.92046
792500000,-6.8161821,155.32315
797000000,-6.9097543,153.93573
801500000,-6.9308939,152.92696
806000000,-6.8297863,151.28551
810500000,-6.8736076,149.44292
815000000,-6.9278564,148.01181
819500000,-6.8663831,147.01311
824000000,-6.8405995,145.24065
828500000,-6.9391971,143.95392
833000000,-6.9862843,143.00874
837500000,-7.0325718,141.98059
842000000,-7.0866513,140.3069
846500000,-7.2339215,138.98264
851000000,-7.3486137,137.96777
855500000,-7.4324198,136.55986
860000000,-7.6012049,134.92326
864500000,-7.7517748,134.00966
869000000,-7.8580103,133.40274
873500000,-7.9815288,132.72728
878000000,-8.1681547,132.46387
882500000,-8.3691273,132.93794
887000000,-8.515029,133.12186
891500000,-8.6862373,133.4689
896000000,-8.9118052,134.18991
900500000,-9.1249142,134.76036
905000000,-9.2453766,134.97856
909500000,-9.485177,134.91737
914000000,-9.6442137,135.0887
918500000,-9.6709633,135.10249
923000000,-9.6758871,134.74213
927500000,-9.7378588,134.91373
932000000,-9.7273264,134.87975
936500000,-9.7299042,134.28766
941000000,-9.8105116,134.43129
945500000,-9.9332619,134.81874
950000000,-9.9787416,135.37564
954500000,-10.086681,134.79778
959000000,-10.270891,134.75035
963500000,-10.37033,134.97324
968000000,-10.407342,134.72461
972500000,-10.473305,134.67474
977000000,-10.50218,135.54253
981500000,-10.424475,136.39186
986000000,-10.356612,137.28098
990500000,-10.34785,138.29614
995000000,-10.297142,140.22189
999500000,-10.151789,141.82155
1004000000,-10.117929,142.47791
1008500000,-10.194124,143.59897
1013000000,-10.097069,144.34644
1017500000,-10.047536,144.05151
1022000000,-10.036544,143.74435
1026500000,-9.9335909,143.78337
1031000000,-9.7627935,143.09241
1035500000,-9.6224756,141.82503
1040000000,-9.5600424,141.4231
1044500000,-9.3842239,141.31659
1049000000,-9.205369,140.65878
1053500000,-9.1788874,139.9299
1058000000,-9.1723757,139.84677
1062500000,-9.0431538,139.08649
1067000000,-9.0340605,137.65195
1071500000,-9.0755301,136.49545
1076000000,-9.0086842,135.74498
1080500000,-8.8727407,134.09761
1085000000,-8.8420343,132.68513
1089500000,-8.7666922,131.85059
1094000000,-8.6836777,131.06544
1098500000,-8.5623941,130.32117
1103000000,-8.5918798,129.88867
1107500000,-8.5925674,129.67464
1112000000,-8.5717411,129.48431
1116500000,-8.7035351,128.41853
1121000000,-8.8183498,127.62505
1125500000,-8.9849415,126.8567
1130000000,-9.0877619,125.27977
1134500000,-9.2040844,123.53747
1139000000,-9.3809767,122.48197
1143500000,-9.3826094,121.13384
1148000000,-9.3990498,120.03468
1152500000,-9.4681253,118.98042
1157000000,-9.5464773,118.63916
1161500000,-9.5786533,118.10413
1166000000,-9.7390928,117.10993
1170500000,-9.9264603,116.44379
1175000000,-10.076787,115.60863
1179500000,-10.178239,114.11813
1184000000,-10.335608,112.52303
1188500000,-10.445107,111.17554
1193000000,-10.470067,109.6936
1197500000,-10.464117,108.59286
1202000000,-10.51035,107.88927
1206500000,-10.575315,107.72459
1211000000,-10.671516,107.4838
1215500000,-10.827695,107.45901
1220000000,-11.112676,107.10513
1224500000,-11.419193,107.16208
1229000000,-11.758277,106.08698
1233500000,-12.148472,105.3381
1238000000,-12.512638,103.67155
1242500000,-12.803437,102.46099
1247000000,-13.079467,100.99173
1251500000,-13.330171,99.852432
1256000000,-13.566298,99.205933
1260500000,-13.699752,99.051048
1265000000,-13.96242,99.028481
1269500000,-14.356829,99.317078
1274000000,-14.731734,99.346977
1278500000,-15.103957,99.179764
1283000000,-15.617343,98.561874
1287500000,-16.046646,98.104996
1292000000,-16.448898,96.765045
1296500000,-16.801662,95.328148
1301000000,-17.03701,94.332687
1305500000,-17.213568,94.234398
1310000000,-17.409328,94.834015
1314500000,-17.608637,96.381111
1319000000,-17.844791,98.339836
1323500000,-18.239206,101.552
1328000000,-18.776562,105.26562
1332500000,-19.513357,108.99287
1337000000,-20.366501,113.14436
1341500000,-21.292439,116.84317
1346000000,-22.190439,119.70833
1350500000,-23.180038,122.53634
1355000000,-23.838495,125.80898
1359500000,-24.446846,127.96629
1364000000,-24.580235,131.96771
1368500000,-24.573532,137.56737
1373000000,-24.393187,144.116
1377500000,-24.00556,152.51865
1382000000,-23.474249,160.70107
1386500000,-23.062284,167.94781
1391000000,-22.724831,174.83459
1395500000,-22.42782,-179.16971
1400000000,-21.965834,-174.83061
1404500000,-21.807999,-173.69365
1409000000,-21.642445,-172.74637
1413500000,-21.086998,-173.14784
1418000000,-20.544178,-176.00925
1422500000,-20.00811,-176.96683
1427000000,-19.064611,-177.58713
1431500000,-18.059647,-177.72404
1436000000,-17.416241,-177.64737
1440500000,-16.905018,-175.20586
1445000000,-16.279409,-173.40581
1449500000,-15.831163,-172.15015
1454000000,-15.70988,-170.54289
1458500000,-15.4796,-169.21385
1463000000,-15.272697,-168.83308
1467500000,-15.217897,-169.56725
1472000000,-15.158617,-169.80814
1476500000,-14.827651,-170.81891
1481000000,-14.532032,-172.24547
1485500000,-14.250069,-172.87279
1490000000,-13.956743,-172.45177
1494500000,-13.525702,-172.19746
1499000000,-13.349899,-171.87903
1503500000,-13.208969,-171.60712
1508000000,-13.101103,-171.23456
1512500000,-13.133763,-171.81526
1517000000,-13.033216,-171.9915
1521500000,-12.923473,-174.287
1526000000,-12.914416,-176.51768
1530500000,-12.786201,-177.81624
1535000000,-12.400379,-179.62105
1539500000,-12.10805,178.04559
1544000000,-11.862691,177.26219
1548500000,-11.549262,177.73102
1553000000,-11.182305,177.42883
1557500000,-11.05316,177.23773
1562000000,-11.034076,178.35944
1566500000,-10.917289,179.01303
1571000000,-10.872066,177.97966
1575500000,-11.040181,177.39854
1580000000,-11.052873,177.05492
1584500000,-10.909281,175.78726
1589000000,-10.858899,173.98901
1593500000,-10.80005,173.56447
1598000000,-10.594132,173.70569
1602500000,-10.387589,173.15565
1607000000,-10.387335,173.20903
1611500000,-10.391453,174.15546
1616000000,-10.270107,174.61272
1620500000,-10.370644,173.62816
1625000000,-10.587227,173.36949
1629500000,-10.562447,173.1832
1634000000,-10.51436,170.80409
1638500000,-10.539777,168.63184
1643000000,-10.442762,167.76437
1647500000,-10.152735,166.67686
1652000000,-9.8741779,165.1777
1656500000,-9.7707901,164.78952
1661000000,-9.5743256,165.80782
1665500000,-9.3595066,165.78867
1670000000,-9.3416309,165.71352
1674500000,-9.4186897,166.40009
1679000000,-9.3632641,166.75229
1683500000,-9.3387451,165.56792
1688000000,-9.4703674,164.61668
1692500000,-9.4744987,163.89372
1697000000,-9.3233652,163.10046
1701500000,-9.2414989,161.44269
1706000000,-9.279335,161.15157
1710500000,-9.1419907,161.43654
1715000000,-8.9944382,161.36392
1719500000,-9.0346537,160.85147
1724000000,-9.1716194,161.27359
1728500000,-9.1595802,161.55742
1733000000,-9.320118,160.02884
1737500000,-9.5769348,159.01616
1742000000,-9.6751738,158.48213
1746500000,-9.6210775,156.4491
1751000000,-9.659729,154.07416
1755500000,-9.6424799,152.94838
1760000000,-9.4192781,152.82877
1764500000,-9.249402,151.85738
1769000000,-9.2494001,152.04488
1773500000,-9.1796894,153.29659
1778000000,-9.0291128,153.85506
1782500000,-9.1337738,153.86462
1787000000,-9.3343954,154.55301
1791500000,-9.3646441,155.06255
1796000000,-9.4078026,153.91273
1800500000,-9.5942736,153.17529
1805000000,-9.6125069,152.9373
1809500000,-9.4700642,152.56509
1814000000,-9.3506765,151.64929
1818500000,-9.3691721,151.88399
1823000000,-9.3093662,152.90245
1827500000,-9.2020903,153.51503
1832000000,-9.3265619,153.64192
1836500000,-9.5194721,154.61865
1841000000,-9.5719995,155.12915
1845500000,-9.6745129,153.92842
1850000000,-9.977169,152.74863
1854500000,-10.021133,151.95399
1859000000,-9.932848,150.54243
1863500000,-9.8611479,148.6042
1868000000,-9.799181,148.08952
1872500000,-9.5487919,148.28192
1877000000,-9.3484373,147.82137
1881500000,-9.3513355,148.32103
1886000000,-9.2976789,150.02921
1890500000,-9.1708221,150.81204
1895000000,-9.2871923,150.55916
1899500000,-9.4299431,151.11932
1904000000,-9.4300785,151.57909
1908500000,-9.4217224,150.55984
1913000000,-9.5292578,149.4989
1917500000,-9.5016193,149.53073
1922000000,-9.3352423,149.55644
1926500000,-9.2394476,148.90143
1931000000,-9.2252331,149.14789
1935500000,-9.1392136,150.48396
1940000000,-9.0518742,151.16251
1944500000,-9.186018,151.23462
1949000000,-9.3812408,151.96165
1953500000,-9.4355135,152.35919
1958000000,-9.5733242,150.95313
1962500000,-9.8567791,149.76743
1967000000,-9.8561602,149.12117
1971500000,-9.7282686,147.16948
1976000000,-9.6405249,145.45685
1980500000,-9.5836353,145.24933
1985000000,-9.3314009,145.73692
1989500000,-9.1153717,145.52325
1994000000,-9.1470585,146.04813
1998500000,-9.0704603,147.59195
2003000000,-8.9687223,148.22963
2007500000,-9.0911493,148.07756
2012000000,-9.2499437,148.65594
2016500000,-9.2583237,148.93457
2021000000,-9.213377,147.73935
2025500000,-9.2746267,146.73389
2030000000,-9.2154865,146.85257
2034500000,-8.9603252,146.76779
2039000000,-8.9202662,146.24008
2043500000,-8.9112015,147.19505
2048000000,-8.8379469,148.84048
2052500000,-8.7793751,149.37918
2057000000,-8.9603062,149.44771
2061500000,-9.140357,150.33481
2066000000,-9.19699,150.11331
2070500000,-9.3693228,148.41254
2075000000,-9.5890675,147.38164
2079500000,-9.5255699,146.58989
2084000000,-9.347374,144.66917
2088500000,-9.2788544,143.39574
2093000000,-9.1795321,143.49051
2097500000,-8.9064016,143.97821
2102000000,-8.7561693,143.71663
2106500000,-8.7842388,144.1918
2111000000,-8.7535725,145.83173
2115500000,-8.603282,146.11703
2120000000,-8.7409964,146.06554
2124500000,-8.8887091,146.37079
2129000000,-8.7996283,146.59406
2133500000,-8.7244835,145.33652
2138000000,-8.7712564,144.54906
2142500000,-8.6810503,144.84926
2147000000,-8.440033,144.80098
2151500000,-8.3538284,144.63376
2156000000,-8.3571606,145.46899
2160500000,-8.2880774,146.85533
2165000000,-8.2105227,146.98691
2169500000,-8.3725262,147.1413
2174000000,-8.5828638,147.56216
2178500000,-8.6251307,147.44797
2183000000,-8.7441235,145.77332
2187500000,-8.9108763,144.13921
2192000000,-8.8537159,143.30623
2196500000,-8.6690569,141.73517
2201000000,-8.6139698,140.07796
2205500000,-8.4927588,140.3141
2210000000,-8.2541971,140.87674
2214500000,-8.1203709,140.70284
2219000000,-8.1359177,141.09033
2223500000,-8.1342621,142.46927
2228000000,-8.0943794,142.39714
2232500000,-8.2061024,141.74725
2237000000,-8.3143568,142.06844
2241500000,-8.2231426,141.47276
2246000000,-8.1440926,140.32614
2250500000,-8.1522312,139.59088
2255000000,-8.0345402,139.86766
2259500000,-7.8308997,139.88211
2264000000,-7.7824087,140.05508
2268500000,-7.8254862,141.16866
2273000000,-7.7777834,142.43817
2277500000,-7.8056378,142.50108
2282000000,-8.0074263,142.40492
2286500000,-8.2190809,142.69739
2291000000,-8.2417822,141.92262
2295500000,-8.340539,140.00882
2300000000,-8.4889593,138.69359
2304500000,-8.3837805,138.11053
2309000000,-8.2174845,136.85915
2313500000,-8.1737003,135.67213
2318000000,-8.0776739,136.24661
2322500000,-7.8588777,136.48438
2327000000,-7.7888947,136.18817
2331500000,-7.9071865,137.03502
2336000000,-7.8537083,138.05806
2340500000,-7.8111,137.5005
2345000000,-7.9078197,137.01184
2349500000,-7.9864259,136.81532
2354000000,-7.8622761,136.52554
2358500000,-7.8248281,135.3586
2363000000,-7.8027654,135.23479
2367500000,-7.6473765,135.90999
2372000000,-7.4672647,136.11591
2376500000,-7.4522386,135.98116
2381000000,-7.5248842,137.11351
2385500000,-7.5146055,138.39418
2390000000,-7.5289469,138.39
2394500000,-7.7527294,138.24385
2399000000,-7.9131064,138.70615
2403500000,-7.9380021,137.42477
2408000000,-8.0450296,135.51263
2412500000,-8.1597443,134.17953
2417000000,-8.042696,133.61932
2421500000,-7.8360019,132.50113
2426000000,-7.8000278,131.65384
2430500000,-7.702559,132.46564
2435000000,-7.4994984,132.78014
2439500000,-7.4906821,132.50224
2444000000,-7.6059303,133.03389
2448500000,-7.5588179,134.00183
2453000000,-7.5425634,133.45406
2457500000,-7.6587787,132.46298
2462000000,-7.681107,132.38039
2466500000,-7.5167136,131.8613
2471000000,-7.4125786,130.89865
2475500000,-7.3757343,130.87161
2480000000,-7.2523012,131.83658
2484500000,-7.096817,132.27579
2489000000,-7.1407328,132.30513
2493500000,-7.2228565,133.69109
2498000000,-7.1934843,134.4808
2502500000,-7.2541351,134.1498
2507000000,-7.509254,133.78056
2511500000,-7.6513629,133.65523
2516000000,-7.6220341,132.61203
2520500000,-7.689992,130.88242
2525000000,-7.7597837,129.82455
2529500000,-7.6203852,129.42996
2534000000,-7.4441266,128.17552
2538500000,-7.4494901,127.57007
2543000000,-7.400413,128.47989
2547500000,-7.2214108,128.83614
2552000000,-7.2154727,128.29297
2556500000,-7.3345919,128.77962
2561000000,-7.2862263,129.1506
2565500000,-7.2783008,128.28461
2570000000,-7.340385,127.65355
2574500000,-7.3625197,127.70654
2579000000,-7.1955919,127.34485
2583500000,-7.1013198,126.14587
2588000000,-7.0492682,126.64012
2592500000,-6.9202924,127.46825
2597000000,-6.7827587,127.60654
2601500000,-6.8323483,128.13937
2606000000,-6.922648,129.35492
2610500000,-6.9163213,130.07239
2615000000,-7.009882,129.47177
2619500000,-7.2253881,129.27145
2624000000,-7.3659267,129.028
2628500000,-7.3201399,127.60864
2633000000,-7.4116769,125.77431
2637500000,-7.4525423,125.18499
2642000000,-7.2632246,124.61859
2646500000,-7.1250739,123.74438
2651000000,-7.1465154,123.45582
2655500000,-7.0751634,124.27066
2660000000,-6.9366112,124.2914
2664500000,-7.0222197,123.90541
2669000000,-7.137033,124.12403
2673500000,-7.0726414,124.35423
2678000000,-7.0163441,123.30718
2682500000,-7.0966306,122.50813
2687000000,-7.0524712,122.44875
2691500000,-6.8467793,122.1484
2696000000,-6.7749691,121.5886
2700500000,-6.7558169,122.15417
2705000000,-6.6184802,123.15356
2709500000,-6.5344052,123.52617
2714000000,-6.6263399,123.72227
2718500000,-6.7278061,124.82465
2723000000,-6.7274079,125.23081
2727500000,-6.8236222,124.48594
2732000000,-7.0349107,124.08936
2736500000,-7.0954733,123.99751
2741000000,-7.0729856,122.7
2745500000,-7.1166477,121.24788
2750000000,-7.1392202,120.78615
2754500000,-6.9999328,120.48185
2759000000,-6.9080124,119.23264
2763500000,-6.9545465,119.18959
2768000000,-6.9090648,120.01482
2772500000,-6.791779,119.66302
2777000000,-6.8790927,118.99271
2781500000,-6.9704204,119.3845
2786000000,-6.8514972,119.42157
2790500000,-6.8467288,118.27367
2795000000,-6.9077578,117.68929
2799500000,-6.8303065,117.76753
2804000000,-6.6189318,117.85645
2808500000,-6.533288,117.2783
2813000000,-6.5216455,118.00929
2817500000,-6.3929148,119.00374
2822000000,-6.3367367,119.11534
2826500000,-6.4601464,119.68821
2831000000,-6.5545506,120.79327
2835500000,-6.5500841,120.82109
2840000000,-6.661756,120.02682
2844500000,-6.8369241,119.51027
2849000000,-6.8650742,119.2845
2853500000,-6.8204575,117.93374
2858000000,-6.9011493,116.65958
2862500000,-6.8689747,116.41901
2867000000,-6.7343583,116.17725
2871500000,-6.6571941,115.34933
2876000000,-6.7148581,115.22506
2880500000,-6.6740742,115.83486
2885000000,-6.6158466,115.28748
2889500000,-6.7235575,114.51759
2894000000,-6.7760186,114.81944
2898500000,-6.6407752,114.42546
2903000000,-6.5544171,113.34464
2907500000,-6.5807629,112.85456
2912000000,-6.4952049,113.15681
2916500000,-6.2963443,113.02871
2921000000,-6.2765436,112.90267
2925500000,-6.2722054,113.98032
2930000000,-6.1610112,114.75871
2934500000,-6.132812,114.68735
2939000000,-6.2348094,114.95895
2943500000,-6.3501811,115.90269
2948000000,-6.3424668,115.73502
2952500000,-6.4551163,114.79385
2957000000,-6.593204,114.5912
2961500000,-6.5732284,114.4027
2966000000,-6.5443249,113.15437
2970500000,-6.597867,111.8653
2975000000,-6.6250987,111.79625
2979500000,-6.4998589,111.56223
2984000000,-6.4593735,110.66934
2988500000,-6.5654283,110.73933
2993000000,-6.5181327,110.86331
2997500000,-6.4425616,110.06044
3002000000,-6.5854688,109.82769
3006500000,-6.4857249,109.75034
3011000000,-6.4477406,108.62736
3015500000,-6.4740477,108.06805
3020000000,-6.3844562,108.18919
3024500000,-6.2148533,107.9916
3029000000,-6.1779709,107.7485
3033500000,-6.1606388,108.48605
3038000000,-6.039762,109.30604
3042500000,-5.9874582,109.40495
3047000000,-6.0913563,109.88259
3051500000,-6.1529965,110.7103
3056000000,-6.133491,110.7309
3060500000,-6.2412276,110.00979
3065000000,-6.3851171,109.98569
3069500000,-6.3952565,109.98861
3074000000,-6.3661036,108.79624
3078500000,-6.4318085,107.71487
3083000000,-6.4553108,107.76414
3087500000,-6.3656473,107.48991
3092000000,-6.3496923,106.43848
3096500000,-6.4481621,106.19917
3101000000,-6.4249368,106.61195
3105500000,-6.3551044,105.6741
3110000000,-6.4493923,104.79514
3114500000,-6.4528961,104.64301
3119000000,-6.3308592,104.33397
3123500000,-6.255249,103.39711
3128000000,-6.261282,102.97305
3132500000,-6.2094722,103.40195
3137000000,-6.0326385,103.5714
3141500000,-6.001524,103.33197
3146000000,-6.0185766,104.15169
3150500000,-5.9057708,104.95948
3155000000,-5.9009676,104.73942
3159500000,-6.0160031,104.97741
3164000000,-6.0578232,105.63512
3168500000,-6.0310206,105.71757
3173000000,-6.0940852,105.03948
3177500000,-6.1924958,104.92725
3182000000,-6.2011962,105.00601
3186500000,-6.1818089,104.09431
3191000000,-6.2741957,103.35323
3195500000,-6.2990556,103.60592
3200000000,-6.205411,103.08398
3204500000,-6.2275639,102.06958
3209000000,-6.3221116,101.42117
3213500000,-6.288588,101.62791
3218000000,-6.2380242,100.60924
3222500000,-6.282618,99.724159
3227000000,-6.2743835,99.926872
3231500000,-6.1656785,99.492729
3236000000,-6.0626764,98.623833
3240500000,-6.1037402,98.370132
3245000000,-6.0114732,98.876785
3249500000,-5.8550386,98.838272
3254000000,-5.837275,98.633751
3258500000,-5.8737764,99.445793
3263000000,-5.7874889,100.12594
3267500000,-5.7836428,99.890045
3272000000,-5.8796415,100.03477
3276500000,-5.9216595,100.70113
3281000000,-5.881948,100.309
3285500000,-5.947751,99.829132
3290000000,-6.0426979,99.946274
3294500000,-6.0505795,99.978622
3299000000,-5.9992514,99.181107
3303500000,-6.0871863,98.552902
3308000000,-6.153018,98.668419
3312500000,-6.0857635,98.074348
3317000000,-6.1447897,97.009514
3321500000,-6.2502289,96.618958
3326000000,-6.1894264,96.198723
3330500000,-6.1263599,95.128731
3335000000,-6.1627645,94.2332
3339500000,-6.1522803,94.261932
3344000000,-5.9968309,94.148277
3348500000,-5.9355617,93.337784
3353000000,-5.9406433,93.590324
3357500000,-5.8410044,94.005493
3362000000,-5.7488432,93.952652
3366500000,-5.7894855,93.84861
3371000000,-5.8036199,94.427658
3375500000,-5.7325225,94.857918
3380000000,-5.7235804,94.492165
3384500000,-5.8200321,94.544487
3389000000,-5.8052073,95.05101
3393500000,-5.7439313,94.837418
3398000000,-5.8165703,94.417809
3402500000,-5.8992238,94.739975
3407000000,-5.8809748,94.992172
3411500000,-5.9098315,94.258827
3416000000,-6.0309391,93.849602
3420500000,-6.0976577,93.689514
3425000000,-6.0428972,92.906822
3429500000,-6.1025095,91.691765
3434000000,-6.18467,91.195747
3438500000,-6.1313434,90.591072
3443000000,-6.0564566,89.38221
3447500000,-6.09934,88.669807
3452000000,-6.0380635,88.891045
3456500000,-5.9062066,88.57531
3461000000,-5.8553729,88.203484
3465500000,-5.877399,88.134689
3470000000,-5.8159165,88.76152
3474500000,-5.7198524,88.752243
3479000000,-5.7834291,88.604988
3483500000,-5.7847748,89.26368
3488000000,-5.7025027,89.30043
3492500000,-5.7116575,88.828117
3497000000,-5.7672863,88.837677
3501500000,-5.7726126,89.462593
3506000000,-5.6991429,89.478836
3510500000,-5.7551389,89.161896
3515000000,-5.8164916,89.577286
3519500000,-5.8080688,89.904129
3524000000,-5.874692,89.177795
3528500000,-6.0137782,88.730202
3533000000,-6.1089902,88.579041
3537500000,-6.0929213,87.715126
3542000000,-6.1566262,86.243645
3546500000,-6.2293696,85.466759
3551000000,-6.1666398,84.866989
3555500000,-6.050034,83.56218
3560000000,-6.0501256,83.220695
3564500000,-5.9963207,83.540466
3569000000,-5.8394084,83.495964
3573500000,-5.8218608,83.156746
3578000000,-5.8527112,83.482506
3582500000,-5.8282595,84.086151
3587000000,-5.7655721,83.713173
3591500000,-5.8293166,83.32737
3596000000,-5.8406029,83.567184
3600500000,-5.7544761,83.578751
3605000000,-5.7279639,83.117424
3609500000,-5.7607784,83.316887
3614000000,-5.7279773,84.138016
3618500000,-5.6596975,84.203316
3623000000,-5.7353439,84.232132
3627500000,-5.8359165,84.697929
3632000000,-5.8972597,85.17569
3636500000,-5.9406953,84.286629
3641000000,-6.1418891,83.906235
3645500000,-6.1933923,83.332497
3650000000,-6.1690798,82.144104
3654500000,-6.2131681,80.579391
3659000000,-6.280726,79.812653
3663500000,-6.182869,79.394234
3668000000,-6.0721412,78.459274
3672500000,-6.066752,78.012817
3677000000,-6.0097837,78.463112
3681500000,-5.896215,78.387947
3686000000,-5.8888311,78.173195
3690500000,-5.9330378,78.564545
3695000000,-5.9131083,78.944641
3699500000,-5.864872,78.517982
3704000000,-5.9349422,78.109406
3708500000,-5.9081321,78.369148
3713000000,-5.8277006,78.185104
3717500000,-5.7931547,77.817734
3722000000,-5.8216963,78.157585
3726500000,-5.7689934,78.919312
3731000000,-5.6978621,79.210266
3735500000,-5.7732854,79.322052
3740000000,-5.8962879,80.095917
3744500000,-5.9317579,80.427391
3749000000,-6.0517774,79.670151
3753500000,-6.2703352,79.11377
3758000000,-6.3504419,78.358292
3762500000,-6.3431835,76.895905
3767000000,-6.3708434,75.213501
3771500000,-6.3743796,74.329132
3776000000,-6.2530951,73.862892
3780500000,-6.1337833,73.075081
3785000000,-6.1121726,72.939445
3789500000,-6.0761819,73.659714
3794000000,-5.9907565,73.810089
3798500000,-6.0041351,73.60215
3803000000,-6.0865655,74.016907
3807500000,-6.0654974,73.868446
3812000000,-6.0522103,73.165184
3816500000,-6.1161852,72.561653
3821000000,-6.0548129,72.72319
3825500000,-5.9177928,72.577385
3830000000,-5.8433428,72.257584
3834500000,-5.8518796,72.984619
3839000000,-5.791316,73.963959
3843500000,-5.7607603,74.590225
3848000000,-5.882987,74.918121
3852500000,-6.0447807,75.724785
3857000000,-6.1311173,75.76931
3861500000,-6.2465911,74.883492
3866000000,-6.4621391,73.895462
3870500000,-6.5196433,73.062775
3875000000,-6.48175,71.378586
3879500000,-6.5343289,69.757637
3884000000,-6.4890623,69.171936
3888500000,-6.3438888,68.686073
3893000000,-6.2412372,68.422562
3897500000,-6.2187643,68.418221
3902000000,-6.1729207,69.099747
3906500000,-6.1186085,69.254478
3911000000,-6.1811419,68.990128
3915500000,-6.2690668,69.15535
3920000000,-6.2806225,68.979675
3924500000,-6.2296529,68.042725
3929000000,-6.2508368,67.300964
3933500000,-6.1834998,67.325211
3938000000,-6.0371957,67.255272
3942500000,-5.9653516,67.256165
3947000000,-5.9485993,68.178452
3951500000,-5.8802023,69.405655
3956000000,-5.8914995,70.14399
3960500000,-6.0185223,70.755829
3965000000,-6.2056236,71.587845
3969500000,-6.3416305,71.349998
3974000000,-6.5191646,70.394569
3978500000,-6.7118874,69.176697
3983000000,-6.7733889,67.904167
3987500000,-6.7201004,65.999725
3992000000,-6.6949034,64.467804
3996500000,-6.6050348,64.039177
4001000000,-6.4159212,63.860691
4005500000,-6.3106456,63.870567
4010000000,-6.3388352,64.358467
4014500000,-6.3657389,65.134682
4019000000,-6.382853,65.268211
4023500000,-6.4576731,64.854485
4028000000,-6.5801783,64.381248
4032500000,-6.5646687,63.850079
4037000000,-6.5093484,62.576847
4041500000,-6.4552794,61.714443
4046000000,-6.3335972,61.768421
4050500000,-6.1428604,61.937447
4055000000,-6.0430532,62.40657
4059500000,-6.0065341,63.573196
4064000000,-6.0018239,64.929611
4068500000,-6.0491686,65.755562
4073000000,-6.2285476,66.493645
4077500000,-6.4337049,67.008385
4082000000,-6.5780845,66.797112
4086500000,-6.7671509,65.274574
4091000000,-6.9446964,63.72501
4095500000,-6.9817228,62.519238
4100000000,-6.8964162,60.604031
4104500000,-6.8356156,59.411751
4109000000,-6.7412229,59.33197
4113500000,-6.5897536,59.648239
4118000000,-6.5337496,59.865032
4122500000,-6.5295982,60.481007
4127000000,-6.6145205,61.150375
4131500000,-6.6500578,61.175793
4136000000,-6.7810473,60.399788
4140500000,-6.8902187,59.943542
4145000000,-6.8730903,58.978321
4149500000,-6.7892933,57.591522
4154000000,-6.7094364,56.752857
4158500000,-6.521708,56.962742
4163000000,-6.3218093,57.426529
4167500000,-6.1981668,58.076244
4172000000,-6.1796184,59.634342
4176500000,-6.1811752,61.382488
4181000000,-6.2523141,62.515396
4185500000,-6.466248,63.006336
4190000000,-6.7584229,63.427029
4194500000,-6.9190035,63.041321
4199000000,-7.1405835,60.826427
4203500000,-7.2891674,59.178658
4208000000,-7.2554574,57.48307
4212500000,-7.1123676,55.865616
4217000000,-7.0086341,55.261177
4221500000,-6.8866,55.420891
4226000000,-6.7686167,56.089691
4230500000,-6.7309918,56.577736
4235000000,-6.8342285,57.22715
4239500000,-6.9618788,57.782677
4244000000,-7.0313225,57.420799
4248500000,-7.2006383,56.408848
4253000000,-7.2704067,55.161751
4257500000,-7.181025,53.885696
4262000000,-7.0287018,52.576527
4266500000,-6.8696055,51.896267
4271000000,-6.6615376,52.44812
4275500000,-6.4438038,53.457588
4280000000,-6.3774376,54.674931
4284500000,-6.3738279,56.475681
4289000000,-6.4473267,58.433048
4293500000,-6.5620761,59.303699
4298000000,-6.8465419,59.550705
4302500000,-7.1181073,59.85825
4307000000,-7.338995,58.688416
4311500000,-7.4721422,56.662289
4316000000,-7.5875974,54.561287
4320500000,-7.5214419,53.231655
4325000000,-7.3514595,51.869354
4329500000,-7.2227774,51.435444
4334000000,-7.1012039,51.997005
4338500000,-7.0069242,52.732304
4343000000,-7.008368,53.471798
4347500000,-7.1404295,54.149475
4352000000,-7.2803764,54.654018
4356500000,-7.4042649,54.166626
4361000000,-7.5383482,52.582397
4365500000,-7.6363182,50.966713
4370000000,-7.5272021,49.414467
4374500000,-7.3099289,48.077473
4379000000,-7.11905,47.63525
4383500000,-6.8870187,48.49453
4388000000,-6.625505,49.822853
4392500000,-6.5200329,51.4002
4397000000,-6.5660372,53.589222
4401500000,-6.6517406,55.708157
4406000000,-6.8854895,56.625496
4410500000,-7.2191415,56.948002
4415000000,-7.5677333,56.322628
4419500000,-7.7381897,54.927776
4424000000,-7.8795676,52.26572
4428500000,-7.8942323,50.102783
4433000000,-7.7315607,48.999493
4437500000,-7.5009708,48.025692
4442000000,-7.3849769,48.248848
4446500000,-7.2651396,49.198879
4451000000,-7.2406106,50.48634
4455500000,-7.3062234,51.388107
4460000000,-7.514349,51.77792
4464500000,-7.7229338,51.640755
4469000000,-7.8668208,50.515034
4473500000,-8.0049314,48.635773
4478000000,-7.9711432,46.78558
4482500000,-7.7803316,44.982811
4487000000,-7.5083747,43.949295
4491500000,-7.2805181,44.090618
4496000000,-7.0145731,45.445606
4500500000,-6.8126459,47.042011
4505000000,-6.7375593,48.953362
4509500000,-6.830606,51.012756
4514000000,-7.0191875,52.948059
4518500000,-7.2339821,53.938606
4523000000,-7.5491586,53.728012
4527500000,-7.8996258,52.777912
4532000000,-8.1048517,51.045528
4536500000,-8.1226521,48.791676
4541000000,-8.1148844,46.715424
4545500000,-7.9380469,45.407822
4550000000,-7.7066703,45.316254
4554500000,-7.526813,45.621433
4559000000,-7.480454,47.012009
4563500000,-7.5165606,48.400982
4568000000,-7.6179609,49.439144
4572500000,-7.8519578,49.678303
4577000000,-8.1586847,49.424469
4581500000,-8.3540115,47.533821
4586000000,-8.4053106,44.907169
4590500000,-8.3454638,42.576618
4595000000,-8.0733252,40.894695
4599500000,-7.6954212,40.180103
4604000000,-7.3525562,40.562309
4608500000,-7.1055708,42.149734
4613000000,-6.9279451,44.731663
4617500000,-6.8970709,47.026691
4622000000,-7.0493541,49.277073
4626500000,-7.302681,51.175476
4631000000,-7.5699339,51.966915
4635500000,-7.9432673,51.118034
4640000000,-8.2631245,49.746906
4644500000,-8.4258652,47.591457
4649000000,-8.3794975,45.120972
4653500000,-8.2247992,43.371372
4658000000,-8.0176296,42.793194
4662500000,-7.7716908,43.394119
4667000000,-7.6941872,44.063141
4671500000,-7.7181602,45.834332
4676000000,-7.8183994,47.415119
4680500000,-8.0047655,48.190884
4685000000,-8.2923689,47.533474
4689500000,-8.6418524,46.504627
4694000000,-8.7231016,44.24157
4698500000,-8.7024269,41.188324
4703000000,-8.553545,38.684799
4707500000,-8.2008057,37.497009
4712000000,-7.8114843,37.312153
4716500000,-7.4804049,38.242146
4721000000,-7.2674856,40.360718
4725500000,-7.1105266,42.843155
4730000000,-7.1332684,45.458275
4734500000,-7.3249874,47.700108
4739000000,-7.6058931,49.282372
4743500000,-7.9107628,49.492046
4748000000,-8.3201084,48.522488
4752500000,-8.5717764,46.792591
4757000000,-8.6853981,44.739162
4761500000,-8.5542135,42.063213
4766000000,-8.3774433,40.760372
4770500000,-8.1523666,40.402451
4775000000,-7.906179,41.395927
4779500000,-7.8313918,42.629528
4784000000,-7.8858471,44.428631
4788500000,-8.0451078,46.388115
4793000000,-8.3328629,46.678986
4797500000,-8.7108927,45.988815
4802000000,-9.0472031,44.404636
4806500000,-9.1652842,41.252083
4811000000,-9.0513468,37.717991
4815500000,-8.7986298,35.124268
4820000000,-8.3069878,34.02663
4824500000,-7.8799772,34.633644
4829000000,-7.5725589,36.069252
4833500000,-7.3353553,38.850185
4838000000,-7.2669697,41.794197
4842500000,-7.3164477,44.445435
4847000000,-7.617609,46.385872
4851500000,-7.9453378,47.57906
4856000000,-8.2969828,47.489815
4860500000,-8.6821051,45.738998
4865000000,-8.8692608,43.652168
4869500000,-8.8240757,41.326004
4874000000,-8.6271362,39.131142
4878500000,-8.4096432,38.349895
4883000000,-8.1554909,39.096916
4887500000,-7.9712839,40.249737
4892000000,-7.9462881,41.906712
4896500000,-8.1119213,44.025814
4901000000,-8.3634787,45.416176
4905500000,-8.718298,45.394085
4910000000,-9.120595,44.06282
4914500000,-9.4112949,41.549911
4919000000,-9.4483166,37.82259
4923500000,-9.253356,34.374062
4928000000,-8.9330606,32.224216
4932500000,-8.3726749,31.747478
4937000000,-7.9230075,32.52623
4941500000,-7.6066504,34.46056
4946000000,-7.4336185,37.356415
4950500000,-7.3712611,40.47781
4955000000,-7.5206332,42.943405
4959500000,-7.8518353,44.955822
4964000000,-8.2030735,45.949345
4968500000,-8.5188131,45.151077
4973000000,-8.8724146,42.982006
4977500000,-9.011692,40.616833
4982000000,-8.8849974,38.24918
4986500000,-8.6221676,36.524128
4991000000,-8.4020681,36.493019
4995500000,-8.1524477,37.897064
5000000000,-8.0276432,39.499268
END

